Wavelength (nm),Intensity
394.27,1020.4000
394.56,1017.0000
394.85,1020.6000
395.14,1004.0000
395.44,1005.6000
395.73,1003.2000
396.02,988.0000
396.31,1007.8000
396.61,1001.2000
396.90,985.2000
397.19,1011.4000
397.48,1015.8000
397.77,987.6000
398.06,1004.4000
398.36,1005.2000
398.65,999.0000
398.94,994.2000
399.23,987.4000
399.52,996.8000
399.82,1004.2000
400.11,998.4000
400.40,1017.0000
400.69,995.8000
400.98,1002.6000
401.27,1016.6000
401.57,985.8000
401.86,1005.2000
402.15,996.4000
402.44,999.0000
402.73,990.4000
403.02,1005.4000
403.32,995.4000
403.61,995.8000
403.90,994.0000
404.19,1007.0000
404.48,1010.8000
404.77,1008.0000
405.06,1006.0000
405.36,1022.0000
405.65,1010.0000
405.94,981.6000
406.23,1015.4000
406.52,1021.2000
406.81,1018.4000
407.10,1007.0000
407.40,1019.2000
407.69,1006.2000
407.98,1005.4000
408.27,1002.4000
408.56,990.4000
408.85,1036.6000
409.14,992.2000
409.43,1014.4000
409.72,992.2000
410.02,1038.0000
410.31,993.6000
410.60,1004.6000
410.89,1016.8000
411.18,1005.8000
411.47,995.2000
411.76,1001.4000
412.05,995.4000
412.34,999.8000
412.63,991.6000
412.93,1041.8000
413.22,1014.6000
413.51,995.0000
413.80,1013.8000
414.09,984.4000
414.38,993.8000
414.67,1019.4000
414.96,987.6000
415.25,1032.6000
415.54,1012.8000
415.83,973.0000
416.12,979.8000
416.41,980.4000
416.70,1016.2000
417.00,998.2000
417.29,1003.0000
417.58,1007.2000
417.87,1011.2000
418.16,1017.6000
418.45,991.0000
418.74,998.0000
419.03,1003.6000
419.32,1023.8000
419.61,1011.4000
419.90,1015.2000
420.19,1008.6000
420.48,1002.0000
420.77,985.4000
421.06,987.8000
421.35,999.4000
421.64,997.8000
421.93,979.2000
422.22,1001.2000
422.51,1030.2000
422.80,1013.4000
423.09,987.8000
423.38,1019.8000
423.67,998.4000
423.96,985.2000
424.25,1007.6000
424.54,994.0000
424.83,969.6000
425.12,994.6000
425.41,1006.2000
425.70,1062.6000
425.99,1000.4000
426.28,1006.2000
426.57,1008.2000
426.86,996.4000
427.15,1010.0000
427.44,1022.2000
427.73,1021.6000
428.02,1000.6000
428.31,1007.2000
428.60,1015.2000
428.89,1006.2000
429.18,1011.6000
429.47,1010.4000
429.76,984.6000
430.05,988.8000
430.34,1012.4000
430.63,999.2000
430.92,1027.8000
431.21,1010.6000
431.50,978.4000
431.79,990.0000
432.08,996.4000
432.37,991.2000
432.66,996.6000
432.94,999.0000
433.23,1005.4000
433.52,1009.2000
433.81,1017.0000
434.10,1059.8000
434.39,1006.8000
434.68,1021.6000
434.97,991.0000
435.26,987.0000
435.55,1005.4000
435.84,1002.2000
436.13,1000.2000
436.42,1017.8000
436.71,1003.8000
436.99,990.0000
437.28,1002.4000
437.57,1012.4000
437.86,997.0000
438.15,1007.2000
438.44,992.8000
438.73,1003.8000
439.02,1016.4000
439.31,1022.8000
439.60,998.8000
439.88,1003.6000
440.17,1013.0000
440.46,1013.4000
440.75,983.0000
441.04,983.2000
441.33,1018.2000
441.62,1007.6000
441.91,985.2000
442.20,997.4000
442.48,1010.2000
442.77,988.6000
443.06,1005.8000
443.35,988.8000
443.64,1009.2000
443.93,980.8000
444.22,995.6000
444.50,1013.4000
444.79,1003.0000
445.08,999.4000
445.37,1013.8000
445.66,991.4000
445.95,983.6000
446.24,987.0000
446.52,1000.8000
446.81,1029.6000
447.10,983.6000
447.39,1010.4000
447.68,995.0000
447.97,986.0000
448.25,1012.6000
448.54,1014.2000
448.83,1007.6000
449.12,1027.2000
449.41,1000.6000
449.69,1014.0000
449.98,991.6000
450.27,995.6000
450.56,995.4000
450.85,1013.2000
451.14,985.6000
451.42,998.8000
451.71,1005.0000
452.00,995.4000
452.29,1016.0000
452.58,999.0000
452.86,997.2000
453.15,996.6000
453.44,1004.4000
453.73,1004.6000
454.01,991.6000
454.30,1049.4000
454.59,984.4000
454.88,986.6000
455.17,973.0000
455.45,992.0000
455.74,1015.0000
456.03,995.4000
456.32,998.2000
456.60,1002.0000
456.89,1002.0000
457.18,987.4000
457.47,981.4000
457.76,994.0000
458.04,994.4000
458.33,1002.8000
458.62,994.6000
458.91,973.0000
459.19,976.0000
459.48,981.2000
459.77,988.0000
460.06,992.4000
460.34,996.0000
460.63,990.0000
460.92,991.2000
461.20,992.8000
461.49,1003.0000
461.78,987.0000
462.07,977.4000
462.35,1001.4000
462.64,1002.4000
462.93,1012.0000
463.22,1013.2000
463.50,1002.6000
463.79,1008.8000
464.08,1023.0000
464.36,997.2000
464.65,994.0000
464.94,992.4000
465.22,999.2000
465.51,999.4000
465.80,1028.8000
466.09,991.2000
466.37,1017.4000
466.66,1018.2000
466.95,989.0000
467.23,997.4000
467.52,996.6000
467.81,1030.8000
468.09,988.4000
468.38,1001.2000
468.67,1031.8000
468.95,989.6000
469.24,986.0000
469.53,1000.0000
469.81,998.8000
470.10,991.8000
470.39,1011.2000
470.67,993.2000
470.96,1002.6000
471.25,985.6000
471.53,1010.6000
471.82,1006.0000
472.11,997.8000
472.39,990.2000
472.68,994.2000
472.97,986.8000
473.25,994.4000
473.54,995.8000
473.82,990.2000
474.11,1005.6000
474.40,998.8000
474.68,1029.2000
474.97,1017.2000
475.26,992.2000
475.54,983.4000
475.83,998.4000
476.11,1005.4000
476.40,1015.6000
476.69,998.2000
476.97,1001.0000
477.26,1004.2000
477.55,1022.2000
477.83,969.2000
478.12,990.8000
478.40,1006.8000
478.69,998.6000
478.98,999.6000
479.26,990.0000
479.55,1003.2000
479.83,987.4000
480.12,1002.0000
480.40,1005.8000
480.69,994.4000
480.98,992.8000
481.26,1019.8000
481.55,991.6000
481.83,993.2000
482.12,986.2000
482.41,999.8000
482.69,977.2000
482.98,1015.6000
483.26,1023.8000
483.55,989.6000
483.83,995.8000
484.12,996.8000
484.40,991.6000
484.69,973.2000
484.98,1007.6000
485.26,992.6000
485.55,994.2000
485.83,984.0000
486.12,1012.8000
486.40,1001.8000
486.69,992.0000
486.97,999.2000
487.26,1011.0000
487.54,992.6000
487.83,988.2000
488.11,997.0000
488.40,1018.2000
488.68,1009.2000
488.97,1001.8000
489.26,998.0000
489.54,1016.6000
489.83,1006.2000
490.11,1001.2000
490.40,1010.4000
490.68,1001.4000
490.97,985.2000
491.25,990.6000
491.54,984.8000
491.82,1013.6000
492.11,1011.4000
492.39,1018.8000
492.68,999.4000
492.96,1013.4000
493.24,987.4000
493.53,987.4000
493.81,1028.8000
494.10,983.6000
494.38,985.4000
494.67,1001.8000
494.95,1024.4000
495.24,985.4000
495.52,1003.6000
495.81,1006.0000
496.09,1005.0000
496.38,974.2000
496.66,1012.0000
496.95,1009.8000
497.23,989.4000
497.51,978.4000
497.80,1003.6000
498.08,988.6000
498.37,981.8000
498.65,1011.8000
498.94,1029.2000
499.22,1001.8000
499.51,1004.0000
499.79,1003.4000
500.07,984.0000
500.36,1009.2000
500.64,1015.4000
500.93,985.6000
501.21,1021.4000
501.50,984.6000
501.78,996.0000
502.06,977.4000
502.35,989.0000
502.63,978.8000
502.92,1007.4000
503.20,1007.8000
503.48,1017.0000
503.77,1002.6000
504.05,996.0000
504.34,978.2000
504.62,1012.4000
504.90,1010.8000
505.19,1019.2000
505.47,988.2000
505.76,990.4000
506.04,984.0000
506.32,1020.8000
506.61,987.4000
506.89,1013.0000
507.17,991.4000
507.46,1004.4000
507.74,1016.6000
508.03,1001.0000
508.31,999.8000
508.59,973.0000
508.88,989.8000
509.16,997.0000
509.44,1002.6000
509.73,998.0000
510.01,1001.0000
510.29,1005.6000
510.58,986.6000
510.86,997.2000
511.14,1014.2000
511.43,1000.4000
511.71,1008.8000
511.99,993.4000
512.28,1008.6000
512.56,981.6000
512.84,1002.4000
513.13,985.2000
513.41,993.2000
513.69,1006.8000
513.98,979.8000
514.26,1011.4000
514.54,990.4000
514.83,996.2000
515.11,1002.2000
515.39,1006.2000
515.68,1010.6000
515.96,992.4000
516.24,975.8000
516.53,988.4000
516.81,1034.8000
517.09,979.6000
517.37,994.4000
517.66,978.8000
517.94,985.4000
518.22,997.0000
518.51,987.6000
518.79,1004.6000
519.07,975.6000
519.35,985.2000
519.64,1009.8000
519.92,1002.2000
520.20,1002.8000
520.48,1000.0000
520.77,995.0000
521.05,977.4000
521.33,968.6000
521.62,969.2000
521.90,998.2000
522.18,991.6000
522.46,992.2000
522.75,986.4000
523.03,1002.6000
523.31,981.2000
523.59,1026.6000
523.88,1011.0000
524.16,986.4000
524.44,1015.6000
524.72,1021.4000
525.00,1013.0000
525.29,1006.0000
525.57,991.8000
525.85,997.8000
526.13,977.2000
526.42,971.8000
526.70,999.6000
526.98,983.4000
527.26,991.6000
527.54,986.8000
527.83,994.0000
528.11,993.4000
528.39,1006.0000
528.67,1002.0000
528.95,998.4000
529.24,980.4000
529.52,1015.2000
529.80,1002.0000
530.08,1017.0000
530.36,989.0000
530.65,1004.0000
530.93,993.8000
531.21,993.2000
531.49,982.6000
531.77,1008.6000
532.05,994.6000
532.34,995.0000
532.62,986.6000
532.90,999.6000
533.18,1010.4000
533.46,999.6000
533.74,1001.0000
534.03,989.6000
534.31,995.6000
534.59,985.0000
534.87,997.8000
535.15,1003.6000
535.43,1004.6000
535.71,994.6000
536.00,1011.4000
536.28,978.0000
536.56,1000.0000
536.84,1004.2000
537.12,994.6000
537.40,993.6000
537.68,994.4000
537.97,1000.2000
538.25,979.2000
538.53,995.0000
538.81,1006.2000
539.09,987.2000
539.37,994.4000
539.65,996.4000
539.93,998.4000
540.21,998.2000
540.50,978.2000
540.78,999.8000
541.06,1006.8000
541.34,1001.4000
541.62,998.2000
541.90,1019.4000
542.18,989.2000
542.46,1008.4000
542.74,996.0000
543.02,997.4000
543.30,1007.2000
543.58,1009.8000
543.87,1009.2000
544.15,985.4000
544.43,1011.8000
544.71,1010.8000
544.99,1005.4000
545.27,999.8000
545.55,980.0000
545.83,984.8000
546.11,993.4000
546.39,1000.8000
546.67,1014.4000
546.95,988.4000
547.23,994.8000
547.51,980.2000
547.79,1002.2000
548.07,992.8000
548.35,992.8000
548.63,989.2000
548.91,1014.0000
549.20,976.0000
549.48,1030.6000
549.76,984.0000
550.04,992.8000
550.32,1006.4000
550.60,981.8000
550.88,962.6000
551.16,987.4000
551.44,1002.6000
551.72,986.2000
552.00,990.4000
552.28,999.0000
552.56,1022.2000
552.84,1016.6000
553.12,1016.4000
553.40,1004.6000
553.68,995.2000
553.96,994.0000
554.24,993.0000
554.52,997.2000
554.80,995.2000
555.08,1003.0000
555.36,980.2000
555.64,1009.2000
555.92,993.4000
556.19,992.2000
556.47,991.6000
556.75,1002.0000
557.03,1002.4000
557.31,1009.2000
557.59,1004.2000
557.87,999.0000
558.15,1006.4000
558.43,987.0000
558.71,990.6000
558.99,1001.6000
559.27,1009.6000
559.55,984.2000
559.83,992.8000
560.11,989.4000
560.39,984.2000
560.67,987.4000
560.95,1016.2000
561.23,997.8000
561.50,992.0000
561.78,989.0000
562.06,989.4000
562.34,988.2000
562.62,993.8000
562.90,1002.4000
563.18,998.8000
563.46,991.4000
563.74,1002.4000
564.02,1026.0000
564.30,993.8000
564.57,991.0000
564.85,977.0000
565.13,1019.4000
565.41,979.6000
565.69,994.2000
565.97,1012.6000
566.25,978.0000
566.53,996.2000
566.81,1005.2000
567.08,1003.8000
567.36,989.8000
567.64,988.4000
567.92,1007.0000
568.20,984.2000
568.48,986.4000
568.76,1011.4000
569.04,1001.6000
569.31,1013.2000
569.59,995.8000
569.87,999.8000
570.15,975.0000
570.43,1002.2000
570.71,1003.2000
570.99,999.2000
571.26,997.8000
571.54,1004.0000
571.82,997.0000
572.10,988.2000
572.38,991.0000
572.66,999.0000
572.93,991.6000
573.21,993.2000
573.49,988.2000
573.77,1009.4000
574.05,974.6000
574.32,994.6000
574.60,994.2000
574.88,999.4000
575.16,1021.6000
575.44,995.8000
575.71,998.2000
575.99,1055.2000
576.27,1009.2000
576.55,989.0000
576.83,999.2000
577.10,1008.8000
577.38,1005.8000
577.66,990.2000
577.94,1010.0000
578.22,974.6000
578.49,1007.6000
578.77,987.0000
579.05,1018.4000
579.33,998.0000
579.60,1003.8000
579.88,1008.4000
580.16,1005.6000
580.44,1005.4000
580.72,986.6000
580.99,993.4000
581.27,1000.0000
581.55,996.6000
581.83,995.4000
582.10,993.8000
582.38,1010.8000
582.66,1001.0000
582.94,988.6000
583.21,1013.4000
583.49,1017.4000
583.77,991.6000
584.04,1007.8000
584.32,1012.6000
584.60,1001.6000
584.88,989.6000
585.15,1019.2000
585.43,977.0000
585.71,995.8000
585.98,987.8000
586.26,983.4000
586.54,999.4000
586.82,993.6000
587.09,979.2000
587.37,1008.8000
587.65,989.0000
587.92,996.6000
588.20,1012.8000
588.48,1038.8000
588.75,991.4000
589.03,985.8000
589.31,993.2000
589.59,988.6000
589.86,1018.8000
590.14,993.4000
590.42,1015.8000
590.69,998.6000
590.97,986.8000
591.25,988.0000
591.52,990.4000
591.80,1024.4000
592.08,994.8000
592.35,1001.8000
592.63,1001.4000
592.91,1003.6000
593.18,992.8000
593.46,990.4000
593.73,998.8000
594.01,1000.8000
594.29,1019.0000
594.56,990.0000
594.84,996.2000
595.12,1019.2000
595.39,995.8000
595.67,994.6000
595.95,983.6000
596.22,989.6000
596.50,1003.4000
596.77,988.0000
597.05,1029.6000
597.33,1007.6000
597.60,1004.4000
597.88,1001.0000
598.15,1009.0000
598.43,988.0000
598.71,992.0000
598.98,1059.4000
599.26,1025.2000
599.53,991.6000
599.81,1009.8000
600.09,990.2000
600.36,989.6000
600.64,1009.0000
600.91,986.4000
601.19,989.2000
601.47,994.0000
601.74,991.0000
602.02,981.8000
602.29,992.0000
602.57,1000.2000
602.84,979.8000
603.12,990.2000
603.40,998.0000
603.67,982.2000
603.95,1007.2000
604.22,1031.6000
604.50,1009.4000
604.77,1006.0000
605.05,983.4000
605.32,997.0000
605.60,1003.8000
605.87,988.2000
606.15,992.4000
606.42,983.0000
606.70,992.6000
606.98,988.0000
607.25,995.8000
607.53,1003.2000
607.80,1001.6000
608.08,992.0000
608.35,1001.8000
608.63,991.4000
608.90,1001.8000
609.18,1000.0000
609.45,979.6000
609.73,1011.4000
610.00,1025.6000
610.28,999.4000
610.55,995.4000
610.83,992.2000
611.10,993.6000
611.38,995.8000
611.65,1007.2000
611.93,993.8000
612.20,999.6000
612.48,967.8000
612.75,995.8000
613.03,995.4000
613.30,993.4000
613.57,986.0000
613.85,987.8000
614.12,1018.0000
614.40,993.6000
614.67,998.4000
614.95,1002.8000
615.22,998.8000
615.50,975.6000
615.77,1013.0000
616.05,997.4000
616.32,1002.0000
616.59,999.0000
616.87,994.0000
617.14,998.0000
617.42,998.6000
617.69,1008.0000
617.97,984.4000
618.24,1002.8000
618.51,971.2000
618.79,987.4000
619.06,980.0000
619.34,991.8000
619.61,979.2000
619.88,1027.4000
620.16,998.0000
620.43,998.2000
620.71,976.8000
620.98,979.4000
621.26,1001.0000
621.53,1003.8000
621.80,999.2000
622.08,989.6000
622.35,987.8000
622.62,1001.8000
622.90,1002.4000
623.17,1001.8000
623.45,999.8000
623.72,1013.4000
623.99,991.0000
624.27,992.8000
624.54,1013.8000
624.81,1027.2000
625.09,1003.0000
625.36,996.4000
625.64,1026.8000
625.91,1005.6000
626.18,982.0000
626.46,999.6000
626.73,1038.4000
627.00,1009.6000
627.28,985.0000
627.55,997.6000
627.82,994.4000
628.10,999.2000
628.37,979.0000
628.64,985.6000
628.92,983.0000
629.19,989.8000
629.46,994.2000
629.74,984.0000
630.01,999.4000
630.28,992.0000
630.56,1000.6000
630.83,972.0000
631.10,986.4000
631.37,999.6000
631.65,979.8000
631.92,990.0000
632.19,993.0000
632.47,1018.6000
632.74,1000.2000
633.01,1014.2000
633.28,992.8000
633.56,984.2000
633.83,965.8000
634.10,979.6000
634.38,986.4000
634.65,1005.4000
634.92,1003.6000
635.19,1011.4000
635.47,995.2000
635.74,987.2000
636.01,974.2000
636.28,972.4000
636.56,989.6000
636.83,990.4000
637.10,1014.6000
637.37,1016.4000
637.65,997.2000
637.92,978.2000
638.19,974.8000
638.46,1016.2000
638.74,986.4000
639.01,1019.4000
639.28,972.8000
639.55,1009.4000
639.83,985.0000
640.10,984.2000
640.37,1002.4000
640.64,978.6000
640.91,1010.6000
641.19,995.2000
641.46,996.8000
641.73,1017.4000
642.00,988.6000
642.28,1001.8000
642.55,1002.6000
642.82,1000.8000
643.09,1010.8000
643.36,997.8000
643.63,983.8000
643.91,999.4000
644.18,1005.0000
644.45,990.8000
644.72,1016.0000
644.99,995.6000
645.27,978.4000
645.54,1004.0000
645.81,1049.4000
646.08,1010.0000
646.35,973.6000
646.62,981.4000
646.90,999.0000
647.17,1012.6000
647.44,988.4000
647.71,1005.4000
647.98,980.0000
648.25,997.2000
648.52,984.2000
648.80,992.8000
649.07,986.0000
649.34,995.4000
649.61,982.8000
649.88,1018.4000
650.15,997.0000
650.42,1003.6000
650.69,994.4000
650.97,998.4000
651.24,1006.6000
651.51,995.8000
651.78,1014.0000
652.05,990.6000
652.32,986.6000
652.59,1024.6000
652.86,997.2000
653.13,977.6000
653.41,1006.8000
653.68,1005.8000
653.95,1014.4000
654.22,1001.8000
654.49,1003.0000
654.76,978.2000
655.03,1017.0000
655.30,992.2000
655.57,987.0000
655.84,1009.4000
656.11,1018.2000
656.38,1001.0000
656.66,984.6000
656.93,984.8000
657.20,989.2000
657.47,1011.2000
657.74,1004.2000
658.01,1019.0000
658.28,979.8000
658.55,986.4000
658.82,1003.6000
659.09,1018.4000
659.36,1002.0000
659.63,993.6000
659.90,999.0000
660.17,1010.4000
660.44,990.6000
660.71,993.6000
660.98,1000.2000
661.25,995.4000
661.52,999.0000
661.79,998.2000
662.06,993.0000
662.33,989.0000
662.60,979.8000
662.87,998.8000
663.14,983.2000
663.41,1000.4000
663.68,973.6000
663.95,987.2000
664.22,1000.8000
664.49,1002.8000
664.76,980.8000
665.03,979.6000
665.30,994.2000
665.57,995.0000
665.84,982.4000
666.11,987.0000
666.38,979.2000
666.65,997.6000
666.92,1040.0000
667.19,993.0000
667.46,1005.2000
667.73,1005.4000
668.00,995.4000
668.27,992.6000
668.54,1005.8000
668.81,988.8000
669.08,992.4000
669.35,996.8000
669.62,1021.8000
669.89,980.6000
670.16,1004.2000
670.42,987.8000
670.69,1005.4000
670.96,1003.4000
671.23,993.6000
671.50,974.4000
671.77,987.8000
672.04,992.6000
672.31,978.8000
672.58,990.6000
672.85,989.2000
673.12,1004.8000
673.39,1003.8000
673.65,982.4000
673.92,1007.0000
674.19,984.4000
674.46,995.8000
674.73,991.6000
675.00,982.4000
675.27,1000.8000
675.54,996.8000
675.81,999.2000
676.07,1000.8000
676.34,1017.8000
676.61,1011.0000
676.88,975.8000
677.15,991.2000
677.42,1005.2000
677.69,981.0000
677.96,1001.6000
678.22,996.2000
678.49,990.2000
678.76,988.8000
679.03,991.0000
679.30,987.0000
679.57,975.4000
679.83,1000.4000
680.10,990.4000
680.37,995.6000
680.64,1014.4000
680.91,987.4000
681.18,1011.6000
681.44,980.6000
681.71,984.2000
681.98,1001.8000
682.25,996.8000
682.52,999.2000
682.79,992.8000
683.05,1020.0000
683.32,997.2000
683.59,1014.6000
683.86,1000.2000
684.13,1011.2000
684.39,994.6000
684.66,993.8000
684.93,1007.8000
685.20,985.8000
685.47,977.2000
685.73,1000.8000
686.00,980.0000
686.27,1000.4000
686.54,995.8000
686.80,1024.0000
687.07,1008.6000
687.34,972.4000
687.61,990.6000
687.88,980.4000
688.14,996.4000
688.41,1020.0000
688.68,980.8000
688.95,989.0000
689.21,991.8000
689.48,1015.2000
689.75,1002.8000
690.02,975.0000
690.28,983.0000
690.55,1001.0000
690.82,984.8000
691.08,1000.6000
691.35,998.4000
691.62,1008.4000
691.89,1012.0000
692.15,1000.6000
692.42,990.0000
692.69,982.6000
692.95,990.4000
693.22,1000.8000
693.49,990.0000
693.76,993.2000
694.02,994.6000
694.29,997.2000
694.56,990.6000
694.82,1004.4000
695.09,980.8000
695.36,992.2000
695.62,987.2000
695.89,1018.2000
696.16,975.2000
696.43,1008.4000
696.69,1018.4000
696.96,1025.8000
697.23,982.8000
697.49,1001.4000
697.76,1004.0000
698.03,994.0000
698.29,981.4000
698.56,1004.4000
698.82,992.8000
699.09,1015.8000
699.36,1002.0000
699.62,998.6000
699.89,996.8000
700.16,978.6000
700.42,1001.6000
700.69,1002.8000
700.96,1000.2000
701.22,1007.8000
701.49,985.4000
701.75,1015.2000
702.02,995.2000
702.29,989.8000
702.55,991.2000
702.82,1001.2000
703.09,1007.4000
703.35,1016.8000
703.62,1003.2000
703.88,1012.2000
704.15,977.8000
704.42,994.2000
704.68,975.8000
704.95,1018.6000
705.21,993.4000
705.48,998.0000
705.75,983.6000
706.01,1008.0000
706.28,989.6000
706.54,983.8000
706.81,995.4000
707.07,998.8000
707.34,984.4000
707.61,1003.6000
707.87,1008.0000
708.14,1009.0000
708.40,1001.4000
708.67,1007.0000
708.93,997.4000
709.20,997.0000
709.46,994.6000
709.73,1003.0000
709.99,1003.6000
710.26,988.0000
710.53,979.8000
710.79,957.0000
711.06,1001.8000
711.32,1157.2000
711.59,1026.0000
711.85,1010.4000
712.12,982.6000
712.38,969.6000
712.65,998.8000
712.91,999.0000
713.18,1008.4000
713.44,1010.4000
713.71,989.8000
713.97,1002.0000
714.24,995.6000
714.50,994.4000
714.77,989.8000
715.03,1005.0000
715.30,1014.6000
715.56,995.4000
715.83,985.6000
716.09,1016.0000
716.36,1034.2000
716.62,993.2000
716.89,983.2000
717.15,1011.2000
717.42,982.4000
717.68,975.2000
717.94,988.8000
718.21,994.6000
718.47,1015.8000
718.74,999.8000
719.00,1003.8000
719.27,1007.4000
719.53,995.8000
719.80,1001.0000
720.06,1003.0000
720.32,1020.4000
720.59,1006.4000
720.85,1004.0000
721.12,982.8000
721.38,1005.4000
721.65,990.4000
721.91,996.0000
722.17,987.0000
722.44,1005.8000
722.70,981.4000
722.97,1009.2000
723.23,1003.0000
723.49,993.8000
723.76,979.0000
724.02,1026.4000
724.29,1010.4000
724.55,1002.0000
724.81,1011.8000
725.08,1010.6000
725.34,1013.0000
725.61,990.6000
725.87,1005.0000
726.13,987.6000
726.40,1010.4000
726.66,1001.2000
726.92,991.8000
727.19,995.6000
727.45,996.6000
727.71,1002.6000
727.98,992.2000
728.24,1018.0000
728.51,997.2000
728.77,987.2000
729.03,1009.0000
729.30,1008.2000
729.56,998.8000
729.82,1012.0000
730.09,987.6000
730.35,990.4000
730.61,1005.6000
730.88,990.8000
731.14,999.6000
731.40,1007.8000
731.67,997.8000
731.93,1001.2000
732.19,990.0000
732.45,1004.4000
732.72,977.2000
732.98,993.4000
733.24,988.4000
733.51,979.0000
733.77,990.8000
734.03,1004.8000
734.30,1008.4000
734.56,1008.4000
734.82,976.8000
735.08,998.4000
735.35,1000.2000
735.61,1006.8000
735.87,1005.6000
736.14,1000.2000
736.40,1007.0000
736.66,1005.0000
736.92,1005.4000
737.19,1004.0000
737.45,1000.4000
737.71,1001.8000
737.97,1004.0000
738.24,996.4000
738.50,992.2000
738.76,1010.0000
739.02,987.4000
739.29,1012.8000
739.55,1021.2000
739.81,1006.6000
740.07,996.8000
740.33,995.4000
740.60,993.0000
740.86,1027.0000
741.12,992.4000
741.38,997.8000
741.65,1008.6000
741.91,988.6000
742.17,1000.4000
742.43,984.4000
742.69,985.0000
742.96,1014.4000
743.22,994.4000
743.48,1018.6000
743.74,1007.4000
744.00,996.6000
744.26,994.6000
744.53,1007.0000
744.79,995.6000
745.05,998.0000
745.31,987.8000
745.57,1020.6000
745.84,1001.8000
746.10,983.2000
746.36,979.8000
746.62,995.2000
746.88,995.6000
747.14,1004.2000
747.40,992.2000
747.67,988.8000
747.93,1004.8000
748.19,994.8000
748.45,1006.2000
748.71,995.4000
748.97,1013.8000
749.23,1017.8000
749.50,1012.0000
749.76,996.0000
750.02,987.4000
750.28,1015.8000
750.54,989.2000
750.80,1002.8000
751.06,977.4000
751.32,999.2000
751.59,1003.2000
751.85,1001.2000
752.11,1015.4000
752.37,1018.8000
752.63,993.4000
752.89,1025.0000
753.15,1031.6000
753.41,981.0000
753.67,1000.0000
753.93,1014.0000
754.19,993.6000
754.46,1022.4000
754.72,974.0000
754.98,995.8000
755.24,1010.8000
755.50,978.0000
755.76,996.6000
756.02,1004.8000
756.28,980.6000
756.54,992.4000
756.80,1025.0000
757.06,1012.6000
757.32,975.0000
757.58,982.0000
757.84,1029.2000
758.10,981.8000
758.36,982.4000
758.62,981.4000
758.88,994.6000
759.14,1013.0000
759.40,1005.2000
759.66,973.8000
759.92,1003.6000
760.18,995.8000
760.44,995.8000
760.70,1004.0000
760.96,1006.6000
761.22,1004.6000
761.48,986.2000
761.74,1003.4000
762.00,997.2000
762.26,998.8000
762.52,1001.2000
762.78,1003.4000
763.04,995.6000
763.30,1012.0000
763.56,970.8000
763.82,987.0000
764.08,1000.6000
764.34,1005.2000
764.60,1003.0000
764.86,991.2000
765.12,990.8000
765.38,996.2000
765.64,996.8000
765.90,1029.6000
766.16,982.6000
766.42,994.2000
766.68,989.4000
766.94,983.0000
767.20,997.6000
767.46,990.6000
767.72,980.4000
767.98,1000.4000
768.23,994.8000
768.49,1000.0000
768.75,1001.4000
769.01,1010.2000
769.27,992.4000
769.53,1006.8000
769.79,1002.4000
770.05,997.0000
770.31,981.0000
770.57,1022.4000
770.83,990.2000
771.08,995.8000
771.34,987.4000
771.60,1011.0000
771.86,981.0000
772.12,983.6000
772.38,999.2000
772.64,984.6000
772.90,984.8000
773.16,1004.6000
773.41,1001.2000
773.67,978.6000
773.93,999.6000
774.19,992.2000
774.45,1008.8000
774.71,1011.6000
774.97,992.6000
775.22,989.6000
775.48,998.4000
775.74,977.2000
776.00,1007.2000
776.26,987.8000
776.52,989.4000
776.77,993.8000
777.03,999.2000
777.29,990.6000
777.55,983.8000
777.81,982.8000
778.07,990.8000
778.32,993.4000
778.58,988.6000
778.84,992.8000
779.10,1003.2000
779.36,1001.6000
779.61,994.0000
779.87,994.8000
780.13,984.0000
780.39,999.0000
780.65,987.0000
780.90,997.4000
781.16,1003.0000
781.42,982.8000
781.68,985.0000
781.94,1010.0000
782.19,993.2000
782.45,992.8000
782.71,988.0000
782.97,1006.2000
783.22,1001.0000
783.48,978.6000
783.74,992.0000
784.00,985.8000
784.25,994.0000
784.51,981.0000
784.77,1014.4000
785.03,1000.0000
785.28,988.6000
785.54,988.2000
785.80,999.4000
786.06,992.8000
786.31,988.8000
786.57,1008.0000
786.83,995.8000
787.08,1009.2000
787.34,979.0000
787.60,1004.8000
787.86,987.4000
788.11,1002.8000
788.37,994.6000
788.63,1004.8000
788.88,1031.2000
789.14,1005.2000
789.40,998.4000
789.65,1005.8000
789.91,1008.0000
790.17,979.6000
790.42,990.0000
790.68,985.0000
790.94,987.0000
791.20,1041.2000
791.45,1030.8000
791.71,998.0000
791.97,987.6000
792.22,1006.8000
792.48,1000.0000
792.73,976.6000
792.99,1006.0000
793.25,966.4000
793.50,996.4000
793.76,1006.4000
794.02,974.8000
794.27,975.2000
794.53,998.2000
794.79,1001.6000
795.04,1015.0000
795.30,1000.8000
795.55,1009.0000
795.81,962.2000
796.07,1004.4000
796.32,1003.6000
796.58,997.2000
796.84,993.4000
797.09,995.6000
797.35,994.4000
797.60,999.8000
797.86,1000.6000
798.12,1017.8000
798.37,1010.0000
798.63,997.8000
798.88,981.0000
799.14,994.4000
799.39,987.0000
799.65,1012.6000
799.91,972.6000
800.16,998.8000
800.42,992.6000
800.67,1014.4000
800.93,1008.0000
801.18,987.2000
801.44,998.2000
801.70,1011.4000
801.95,993.6000
802.21,989.2000
802.46,995.6000
802.72,992.6000
802.97,1006.6000
803.23,999.4000
803.48,1004.0000
803.74,974.4000
803.99,989.6000
804.25,991.8000
804.50,1023.0000
804.76,993.0000
805.02,977.0000
805.27,999.0000
805.53,1004.8000
805.78,978.4000
806.04,1010.6000
806.29,999.6000
806.55,1009.8000
806.80,983.6000
807.06,1036.0000
807.31,984.4000
807.56,993.0000
807.82,997.6000
808.07,1012.4000
808.33,1004.8000
808.58,991.6000
808.84,1010.4000
809.09,990.8000
809.35,1017.2000
809.60,995.2000
809.86,997.6000
810.11,1015.2000
810.37,992.4000
810.62,973.8000
810.88,990.6000
811.13,1002.0000
811.38,980.0000
811.64,997.4000
811.89,999.8000
812.15,988.8000
812.40,990.0000
812.66,1004.2000
812.91,1001.2000
813.16,983.2000
813.42,996.6000
813.67,1005.0000
813.93,988.8000
814.18,1001.8000
814.44,1023.4000
814.69,1002.6000
814.94,996.6000
815.20,995.0000
815.45,975.4000
815.71,997.8000
815.96,975.8000
816.21,987.2000
816.47,1003.2000
816.72,984.2000
816.97,987.2000
817.23,984.2000
817.48,984.4000
817.74,986.6000
817.99,992.8000
818.24,1024.6000
818.50,995.4000
818.75,1025.8000
819.00,1005.4000
819.26,1009.2000
819.51,1041.4000
819.76,977.8000
820.02,986.6000
820.27,990.0000
820.52,980.6000
820.78,979.0000
821.03,991.4000
821.28,1005.8000
821.54,1008.6000
821.79,982.0000
822.04,990.0000
822.30,990.2000
822.55,1013.0000
822.80,1004.0000
823.06,977.2000
823.31,992.0000
823.56,1001.2000
823.82,998.4000
824.07,995.0000
824.32,984.8000
824.57,994.2000
824.83,1004.4000
825.08,1018.2000
825.33,995.0000
825.59,967.6000
825.84,993.6000
826.09,984.2000
826.34,984.6000
826.60,988.8000
826.85,998.2000
827.10,990.2000
827.35,1016.4000
827.61,968.8000
827.86,989.4000
828.11,989.6000
828.36,964.6000
828.62,996.0000
828.87,1015.6000
829.12,983.0000
829.37,1012.6000
829.63,984.0000
829.88,1003.8000
830.13,992.4000
830.38,1007.2000
830.63,965.6000
830.89,989.8000
831.14,995.0000
831.39,1007.2000
831.64,991.4000
831.89,1017.6000
832.15,975.0000
832.40,996.6000
832.65,1005.8000
832.90,987.4000
833.15,1000.0000
833.41,1002.6000
833.66,1044.6000
833.91,1020.8000
834.16,1001.6000
834.41,1005.4000
834.67,975.4000
834.92,1018.8000
835.17,987.8000
835.42,991.4000
835.67,986.4000
835.92,993.8000
836.17,994.4000
836.43,1009.2000
836.68,1014.4000
836.93,975.8000
837.18,993.8000
837.43,974.4000
837.68,996.4000
837.93,976.6000
838.19,988.4000
838.44,986.2000
838.69,996.8000
838.94,980.6000
839.19,969.8000
839.44,977.4000
839.69,1004.8000
839.94,981.0000
840.20,997.6000
840.45,1027.8000
840.70,1025.0000
840.95,991.8000
841.20,984.6000
841.45,988.2000
841.70,996.8000
841.95,1003.8000
842.20,991.2000
842.45,1026.8000
842.70,1007.6000
842.95,972.6000
843.21,991.2000
843.46,992.6000
843.71,998.6000
843.96,1014.8000
844.21,996.8000
844.46,962.0000
844.71,989.4000
844.96,1028.0000
845.21,979.6000
845.46,981.4000
845.71,1000.8000
845.96,987.6000
846.21,1003.8000
846.46,1008.4000
846.71,980.6000
846.96,973.4000
847.21,1009.6000
847.46,1009.8000
847.71,991.6000
847.96,996.6000
848.21,990.4000
848.46,995.2000
848.71,1002.2000
848.96,1004.4000
849.21,997.0000
849.46,985.0000
849.71,998.8000
849.96,984.0000
850.21,986.0000
850.46,990.2000
850.71,985.0000
850.96,968.6000
851.21,1003.0000
851.46,988.6000
851.71,986.6000
851.96,971.0000
852.21,980.4000
852.46,979.8000
852.71,992.6000
852.96,981.0000
853.21,981.6000
853.46,1006.8000
853.71,1005.2000
853.96,978.6000
854.21,994.6000
854.46,1029.4000
854.70,985.6000
854.95,994.2000
855.20,995.4000
855.45,1001.6000
855.70,992.0000
855.95,991.2000
856.20,1003.2000
856.45,990.4000
856.70,993.0000
856.95,994.6000
857.20,976.6000
857.44,1015.8000
857.69,981.2000
857.94,992.2000
858.19,1008.2000
858.44,985.2000
858.69,994.4000
858.94,995.6000
859.19,990.4000
859.44,990.4000
859.68,991.2000
859.93,992.4000
860.18,982.0000
860.43,993.8000
860.68,1016.6000
860.93,993.4000
861.18,991.2000
861.42,999.6000
861.67,1003.0000
861.92,1001.0000
862.17,1009.6000
862.42,1000.8000
862.67,998.8000
862.91,1005.8000
863.16,1000.4000
863.41,1003.4000
863.66,1005.8000
863.91,1031.4000
864.16,1003.6000
864.40,986.8000
864.65,1009.4000
864.90,976.6000
865.15,989.4000
865.40,992.6000
865.64,998.6000
865.89,1007.2000
866.14,990.0000
866.39,1004.0000
866.64,981.2000
866.88,978.8000
867.13,1013.8000
867.38,1004.8000
867.63,968.6000
867.87,984.8000
868.12,995.2000
868.37,1002.0000
868.62,974.6000
868.86,986.4000
869.11,977.0000
869.36,999.6000
869.61,1000.0000
869.85,1004.0000
870.10,1015.8000
870.35,1005.2000
870.60,1001.6000
870.84,994.6000
871.09,987.8000
871.34,991.6000
871.59,991.6000
871.83,1007.6000
872.08,1007.8000
872.33,975.4000
872.57,996.8000
872.82,1010.6000
873.07,988.0000
873.32,1002.4000
873.56,1007.8000
873.81,993.6000
874.06,993.2000
874.30,977.4000
874.55,1006.4000
874.80,982.8000
875.04,1007.0000
875.29,994.0000
875.54,1009.6000
875.78,986.2000
876.03,994.2000
876.28,992.6000
876.52,974.4000
876.77,993.8000
877.02,997.2000
877.26,999.6000
877.51,992.0000
877.76,1009.2000
878.00,1009.0000
878.25,989.4000
878.50,1018.8000
878.74,991.0000
878.99,1001.8000
879.23,981.4000
879.48,973.0000
879.73,1001.0000
879.97,995.4000
880.22,978.2000
880.47,995.8000
880.71,967.0000
880.96,1020.2000
881.20,969.8000
881.45,989.6000
881.70,991.6000
881.94,985.2000
882.19,986.2000
882.43,1009.6000
882.68,987.0000
882.92,1028.0000
883.17,1000.2000
883.42,995.2000
883.66,998.0000
883.91,994.6000
884.15,971.4000
884.40,1002.2000
884.64,991.2000
884.89,1020.2000
885.14,999.8000
885.38,1013.0000
885.63,996.6000
885.87,981.0000
886.12,987.4000
886.36,1002.6000
886.61,994.2000
886.85,991.2000
887.10,982.0000
887.34,993.6000
887.59,995.2000
887.83,983.4000
888.08,1016.8000
888.32,980.0000
888.57,1009.2000
888.81,1010.4000
889.06,1005.4000
889.30,975.8000
889.55,997.2000
889.79,981.6000
890.04,1005.2000
890.28,996.2000
890.53,998.6000
890.77,1032.4000
891.02,1007.0000
891.26,1005.0000
891.51,1007.0000
891.75,1005.4000
892.00,986.2000
892.24,985.6000
892.49,991.2000
892.73,1017.6000
892.98,1010.6000
893.22,996.4000
893.47,976.6000
893.71,1007.0000
893.95,1002.8000
894.20,981.0000
894.44,974.4000
894.69,1036.4000
894.93,1039.8000
895.18,1004.0000
895.42,998.8000
895.66,995.6000
895.91,989.2000
896.15,986.2000
896.40,1008.6000
896.64,1019.8000
896.88,980.8000
897.13,1008.2000
897.37,987.4000
897.62,994.0000
897.86,999.6000
898.10,986.8000
898.35,992.0000
898.59,1008.2000
898.84,1008.8000
899.08,996.6000
899.32,1000.2000
899.57,1024.6000
899.81,982.8000
900.05,985.8000
900.30,996.6000
900.54,993.4000
900.78,1035.0000
901.03,1015.6000
901.27,973.8000
901.52,1002.0000
901.76,996.4000
902.00,1014.0000
902.25,993.2000
902.49,998.6000
902.73,1007.4000
902.98,991.4000
903.22,992.4000
903.46,996.4000
903.70,1004.6000
903.95,996.4000
904.19,1006.2000
904.43,1007.2000
904.68,995.4000
904.92,986.4000
905.16,984.0000
905.41,1007.0000
905.65,974.2000
905.89,978.8000
906.13,1028.6000
906.38,994.4000
906.62,996.2000
906.86,977.2000
907.11,987.4000
907.35,989.6000
907.59,1017.0000
907.83,1022.0000
908.08,996.8000
908.32,979.2000
908.56,1009.6000
908.80,1012.0000
909.05,1009.4000
909.29,994.6000
909.53,993.6000
909.77,990.0000
910.02,976.8000
910.26,1034.4000
910.50,991.0000
910.74,992.2000
910.98,1002.0000
911.23,1017.4000
911.47,1003.0000
911.71,1000.4000
911.95,981.2000
912.20,1003.2000
912.44,979.2000
912.68,1001.2000
912.92,1002.8000
913.16,1007.6000
913.41,965.4000
913.65,1016.8000
913.89,1005.4000
914.13,1003.4000
914.37,993.6000
914.61,1026.8000
914.86,999.4000
915.10,1012.0000
915.34,994.4000
915.58,987.8000
915.82,985.2000
916.06,984.4000
916.31,997.4000
916.55,996.2000
916.79,1009.0000
917.03,1016.2000
917.27,982.4000
917.51,1012.4000
917.75,995.8000
918.00,983.8000
918.24,1006.6000
918.48,996.2000
918.72,1038.8000
918.96,999.8000
919.20,1020.4000
919.44,1029.8000
919.68,1052.2000
919.92,1004.0000
920.17,988.2000
920.41,1000.2000
920.65,999.4000
920.89,1007.0000
921.13,1005.4000
921.37,1004.6000
921.61,981.8000
921.85,1002.4000
922.09,1000.4000
922.33,1006.2000
922.57,1004.4000
922.81,963.6000
923.05,1007.4000
923.30,984.4000
923.54,993.6000
923.78,970.2000
924.02,999.2000
924.26,1003.4000
924.50,991.2000
924.74,1012.8000
924.98,989.0000
925.22,1000.2000
925.46,986.6000
925.70,1001.4000
925.94,1024.4000
926.18,1003.0000
926.42,1002.6000
926.66,1008.2000
926.90,988.2000
927.14,984.8000
927.38,995.2000
927.62,984.6000
927.86,1029.0000
928.10,1016.6000
928.34,988.6000
928.58,984.6000
928.82,997.8000
929.06,997.0000
929.30,1032.6000
929.54,1002.4000
929.78,983.6000
930.02,978.2000
930.26,998.6000
930.50,990.0000
930.74,983.2000
930.98,999.0000
931.22,992.8000
931.46,994.2000
931.70,998.2000
931.94,1004.0000
932.17,984.6000
932.41,1014.0000
932.65,1004.8000
932.89,983.4000
933.13,992.4000
933.37,1005.6000
933.61,964.2000
933.85,995.8000
934.09,981.8000
934.33,979.0000
934.57,969.8000
934.81,993.2000
935.05,1006.8000
935.28,991.4000
935.52,982.4000
935.76,981.0000
936.00,993.2000
936.24,999.0000
936.48,990.2000
936.72,1000.4000
936.96,993.8000
937.19,999.0000
937.43,1010.2000
937.67,995.2000
937.91,986.2000
938.15,986.2000
938.39,987.8000
938.63,977.8000
938.86,984.6000
939.10,984.8000
939.34,986.4000
939.58,970.2000
939.82,986.2000
940.06,986.4000
940.30,968.4000
940.53,973.8000
940.77,975.8000
941.01,975.2000
941.25,975.2000
