Wavelength (nm),Intensity
394.27,2061.5000
394.56,1998.5000
394.85,2067.0000
395.14,2003.0000
395.44,2010.0000
395.73,2027.5000
396.02,1878.0000
396.31,2025.5000
396.61,2052.0000
396.90,1921.5000
397.19,2127.5000
397.48,2134.0000
397.77,1968.5000
398.06,2090.5000
398.36,2094.5000
398.65,2027.5000
398.94,2010.5000
399.23,1956.0000
399.52,2022.0000
399.82,2102.0000
400.11,2035.5000
400.40,2135.0000
400.69,2040.0000
400.98,2038.5000
401.27,2191.5000
401.57,1895.5000
401.86,2103.5000
402.15,2008.5000
402.44,2018.0000
402.73,2026.5000
403.02,2170.5000
403.32,1987.5000
403.61,2069.0000
403.90,2033.0000
404.19,2160.0000
404.48,2165.0000
404.77,2151.5000
405.06,2146.0000
405.36,2194.0000
405.65,2106.5000
405.94,1906.5000
406.23,2159.5000
406.52,2189.5000
406.81,2234.0000
407.10,2119.0000
407.40,2126.0000
407.69,2118.5000
407.98,2158.5000
408.27,2059.0000
408.56,1991.0000
408.85,2329.5000
409.14,2020.0000
409.43,2180.0000
409.72,2041.5000
410.02,2404.5000
410.31,2116.5000
410.60,2158.5000
410.89,2271.0000
411.18,2143.5000
411.47,2129.0000
411.76,2136.0000
412.05,2135.0000
412.34,2151.5000
412.63,2055.5000
412.93,2483.0000
413.22,2308.5000
413.51,2093.5000
413.80,2206.5000
414.09,2050.5000
414.38,2100.5000
414.67,2218.0000
414.96,2017.5000
415.25,2471.0000
415.54,2256.0000
415.83,2004.0000
416.12,2023.0000
416.41,2033.5000
416.70,2270.5000
417.00,2253.0000
417.29,2199.5000
417.58,2197.0000
417.87,2156.5000
418.16,2290.0000
418.45,2132.5000
418.74,2135.5000
419.03,2130.5000
419.32,2389.0000
419.61,2259.0000
419.90,2308.0000
420.19,2291.5000
420.48,2226.0000
420.77,2038.0000
421.06,2114.5000
421.35,2176.0000
421.64,2179.5000
421.93,2087.0000
422.22,2180.5000
422.51,2377.0000
422.80,2241.5000
423.09,2141.5000
423.38,2409.0000
423.67,2266.0000
423.96,2161.5000
424.25,2163.5000
424.54,2153.5000
424.83,1989.5000
425.12,2163.0000
425.41,2232.5000
425.70,2696.5000
425.99,2348.5000
426.28,2250.5000
426.57,2301.5000
426.86,2216.0000
427.15,2335.0000
427.44,2464.0000
427.73,2387.0000
428.02,2240.5000
428.31,2364.5000
428.60,2459.5000
428.89,2378.5000
429.18,2323.5000
429.47,2397.0000
429.76,2235.0000
430.05,2221.5000
430.34,2412.0000
430.63,2268.5000
430.92,2521.5000
431.21,2466.0000
431.50,2276.5000
431.79,2350.0000
432.08,2371.0000
432.37,2327.5000
432.66,2425.0000
432.94,2398.0000
433.23,2485.5000
433.52,2569.5000
433.81,2514.5000
434.10,2934.0000
434.39,2503.5000
434.68,2737.5000
434.97,2468.5000
435.26,2504.0000
435.55,2636.0000
435.84,2590.5000
436.13,2626.5000
436.42,2742.0000
436.71,2654.0000
436.99,2648.5000
437.28,2700.0000
437.57,2747.0000
437.86,2681.0000
438.15,2834.5000
438.44,2736.0000
438.73,2817.0000
439.02,2926.0000
439.31,3084.0000
439.60,2840.0000
439.88,2959.5000
440.17,2987.5000
440.46,3153.5000
440.75,2986.0000
441.04,2940.0000
441.33,3284.5000
441.62,3263.5000
441.91,3146.5000
442.20,3283.0000
442.48,3392.5000
442.77,3365.0000
443.06,3531.5000
443.35,3405.0000
443.64,3643.0000
443.93,3568.0000
444.22,3682.5000
444.50,3908.5000
444.79,3892.0000
445.08,3999.0000
445.37,4087.5000
445.66,4013.0000
445.95,3984.0000
446.24,4130.5000
446.52,4299.5000
446.81,4681.5000
447.10,4399.5000
447.39,4660.5000
447.68,4570.0000
447.97,4595.5000
448.25,5011.5000
448.54,5018.5000
448.83,5134.0000
449.12,5323.5000
449.41,5169.5000
449.69,5220.5000
449.98,5191.0000
450.27,5322.5000
450.56,5264.5000
450.85,5442.5000
451.14,5319.0000
451.42,5419.5000
451.71,5525.0000
452.00,5444.0000
452.29,5588.0000
452.58,5452.0000
452.86,5504.5000
453.15,5422.5000
453.44,5433.0000
453.73,5531.0000
454.01,5320.5000
454.30,5829.0000
454.59,5214.0000
454.88,5225.5000
455.17,5112.5000
455.45,5200.0000
455.74,5423.0000
456.03,5099.5000
456.32,4996.5000
456.60,4858.0000
456.89,4952.0000
457.18,4765.5000
457.47,4678.5000
457.76,4713.0000
458.04,4601.5000
458.33,4612.0000
458.62,4617.5000
458.91,4354.0000
459.19,4338.5000
459.48,4340.5000
459.77,4296.0000
460.06,4379.5000
460.34,4349.0000
460.63,4359.0000
460.92,4344.0000
461.20,4283.0000
461.49,4334.5000
461.78,4155.0000
462.07,4224.5000
462.35,4327.0000
462.64,4312.5000
462.93,4324.0000
463.22,4399.5000
463.50,4322.0000
463.79,4273.5000
464.08,4330.0000
464.36,4241.0000
464.65,4232.5000
464.94,4194.5000
465.22,4259.5000
465.51,4140.5000
465.80,4403.0000
466.09,4121.0000
466.37,4294.0000
466.66,4348.5000
466.95,4124.0000
467.23,4091.5000
467.52,4129.0000
467.81,4355.5000
468.09,4006.0000
468.38,4125.5000
468.67,4259.5000
468.95,4037.5000
469.24,3922.5000
469.53,4096.5000
469.81,4111.5000
470.10,3979.5000
470.39,3940.5000
470.67,3848.0000
470.96,3939.0000
471.25,3799.5000
471.53,3985.5000
471.82,3887.0000
472.11,3849.5000
472.39,3723.5000
472.68,3801.5000
472.97,3639.5000
473.25,3770.0000
473.54,3658.5000
473.82,3667.5000
474.11,3712.5000
474.40,3686.5000
474.68,3908.5000
474.97,3817.0000
475.26,3684.5000
475.54,3514.0000
475.83,3656.0000
476.11,3588.0000
476.40,3710.0000
476.69,3652.0000
476.97,3638.5000
477.26,3608.5000
477.55,3783.0000
477.83,3420.5000
478.12,3587.0000
478.40,3564.0000
478.69,3545.0000
478.98,3571.5000
479.26,3497.0000
479.55,3624.5000
479.83,3544.0000
480.12,3619.0000
480.40,3641.5000
480.69,3535.0000
480.98,3534.0000
481.26,3756.5000
481.55,3565.0000
481.83,3663.5000
482.12,3564.0000
482.41,3558.5000
482.69,3485.0000
482.98,3655.0000
483.26,3822.5000
483.55,3601.5000
483.83,3610.0000
484.12,3655.0000
484.40,3623.5000
484.69,3464.0000
484.98,3714.5000
485.26,3606.5000
485.55,3638.0000
485.83,3404.5000
486.12,3624.5000
486.40,3623.0000
486.69,3629.0000
486.97,3650.0000
487.26,3738.0000
487.54,3644.0000
487.83,3687.0000
488.11,3756.5000
488.40,3981.5000
488.68,3904.5000
488.97,3793.5000
489.26,3814.0000
489.54,3912.0000
489.83,3863.5000
490.11,3834.0000
490.40,3906.5000
490.68,3882.0000
490.97,3765.0000
491.25,3948.5000
491.54,3833.0000
491.82,4011.0000
492.11,3943.0000
492.39,4074.0000
492.68,3934.0000
492.96,4117.5000
493.24,3913.5000
493.53,3922.0000
493.81,4248.0000
494.10,4010.0000
494.38,3995.5000
494.67,4094.5000
494.95,4364.5000
495.24,4114.0000
495.52,4265.5000
495.81,4296.5000
496.09,4291.0000
496.38,4105.0000
496.66,4448.5000
496.95,4347.5000
497.23,4348.0000
497.51,4286.0000
497.80,4362.0000
498.08,4365.0000
498.37,4290.5000
498.65,4492.0000
498.94,4704.0000
499.22,4503.5000
499.51,4495.5000
499.79,4545.0000
500.07,4425.5000
500.36,4732.5000
500.64,4714.5000
500.93,4582.5000
501.21,4895.5000
501.50,4660.5000
501.78,4699.0000
502.06,4570.0000
502.35,4662.0000
502.63,4653.5000
502.92,4830.0000
503.20,4975.5000
503.48,5088.0000
503.77,4874.5000
504.05,4900.5000
504.34,4796.0000
504.62,4990.5000
504.90,5075.0000
505.19,5216.0000
505.47,4987.0000
505.76,4960.5000
506.04,5022.0000
506.32,5252.0000
506.61,4987.0000
506.89,5285.5000
507.17,5088.0000
507.46,5161.0000
507.74,5373.0000
508.03,5121.5000
508.31,5277.5000
508.59,5085.5000
508.88,5206.5000
509.16,5569.0000
509.44,5356.5000
509.73,5379.5000
510.01,5370.5000
510.29,5398.0000
510.58,5301.0000
510.86,5433.0000
511.14,5622.5000
511.43,5463.0000
511.71,5547.5000
511.99,5554.5000
512.28,5525.0000
512.56,5346.0000
512.84,5495.5000
513.13,5417.5000
513.41,5593.0000
513.69,5665.0000
513.98,5409.5000
514.26,5636.5000
514.54,5626.5000
514.83,5695.5000
515.11,5690.0000
515.39,5779.5000
515.68,5813.0000
515.96,5660.0000
516.24,5632.5000
516.53,5625.5000
516.81,5928.5000
517.09,5510.5000
517.37,5607.5000
517.66,5701.0000
517.94,5709.5000
518.22,5822.0000
518.51,5693.0000
518.79,5870.5000
519.07,5721.0000
519.35,5855.5000
519.64,5954.0000
519.92,5979.5000
520.20,5932.0000
520.48,5995.5000
520.77,5880.5000
521.05,5810.0000
521.33,5789.5000
521.62,5857.0000
521.90,6004.5000
522.18,5899.0000
522.46,5935.0000
522.75,5948.5000
523.03,6069.5000
523.31,5885.0000
523.59,6241.0000
523.88,6190.5000
524.16,6020.0000
524.44,6247.5000
524.72,6237.0000
525.00,6282.0000
525.29,6154.0000
525.57,6066.5000
525.85,6092.5000
526.13,5984.5000
526.42,5885.5000
526.70,6091.5000
526.98,6001.0000
527.26,6065.0000
527.54,6094.0000
527.83,6123.5000
528.11,6196.5000
528.39,6309.5000
528.67,6307.0000
528.95,6228.0000
529.24,6041.5000
529.52,6299.0000
529.80,6338.5000
530.08,6360.0000
530.36,6290.0000
530.65,6371.5000
530.93,6241.5000
531.21,6267.0000
531.49,6290.5000
531.77,6417.5000
532.05,6305.5000
532.34,6395.5000
532.62,6246.0000
532.90,6382.0000
533.18,6369.5000
533.46,6457.5000
533.74,6411.5000
534.03,6320.5000
534.31,6368.5000
534.59,6361.5000
534.87,6503.5000
535.15,6502.5000
535.43,6518.0000
535.71,6435.0000
536.00,6504.5000
536.28,6406.5000
536.56,6440.0000
536.84,6498.0000
537.12,6392.5000
537.40,6524.0000
537.68,6578.0000
537.97,6656.0000
538.25,6413.5000
538.53,6618.0000
538.81,6648.5000
539.09,6356.5000
539.37,6578.0000
539.65,6494.5000
539.93,6538.5000
540.21,6457.0000
540.50,6381.0000
540.78,6657.0000
541.06,6623.0000
541.34,6690.0000
541.62,6695.5000
541.90,6796.5000
542.18,6555.0000
542.46,6782.5000
542.74,6686.0000
543.02,6699.5000
543.30,6722.0000
543.58,6733.0000
543.87,6777.0000
544.15,6720.5000
544.43,6908.5000
544.71,6803.0000
544.99,6848.5000
545.27,6786.0000
545.55,6655.0000
545.83,6800.0000
546.11,6778.0000
546.39,6830.0000
546.67,6917.5000
546.95,6766.5000
547.23,6799.0000
547.51,6812.0000
547.79,6943.5000
548.07,6895.5000
548.35,6846.0000
548.63,6704.0000
548.91,7085.5000
549.20,6855.5000
549.48,7232.5000
549.76,6856.0000
550.04,6943.5000
550.32,7086.5000
550.60,6915.5000
550.88,6909.0000
551.16,7112.0000
551.44,7129.5000
551.72,6933.0000
552.00,7030.5000
552.28,7107.0000
552.56,7276.0000
552.84,7245.5000
553.12,7134.5000
553.40,7142.0000
553.68,7274.5000
553.96,7243.0000
554.24,7107.5000
554.52,7197.0000
554.80,7196.5000
555.08,7288.0000
555.36,7087.5000
555.64,7349.5000
555.92,7177.5000
556.19,7277.0000
556.47,7252.0000
556.75,7317.5000
557.03,7335.5000
557.31,7418.5000
557.59,7504.0000
557.87,7327.0000
558.15,7398.5000
558.43,7280.5000
558.71,7414.0000
558.99,7367.0000
559.27,7549.5000
559.55,7377.0000
559.83,7397.0000
560.11,7507.5000
560.39,7382.5000
560.67,7529.5000
560.95,7623.5000
561.23,7533.5000
561.50,7622.5000
561.78,7527.0000
562.06,7505.5000
562.34,7565.5000
562.62,7613.5000
562.90,7767.0000
563.18,7715.5000
563.46,7606.5000
563.74,7693.5000
564.02,7892.5000
564.30,7726.0000
564.57,7764.5000
564.85,7630.0000
565.13,7859.5000
565.41,7720.0000
565.69,7780.0000
565.97,7871.0000
566.25,7695.0000
566.53,7775.5000
566.81,8048.5000
567.08,7979.0000
567.36,7885.0000
567.64,7878.0000
567.92,8106.5000
568.20,7807.0000
568.48,7881.0000
568.76,8112.5000
569.04,8057.5000
569.31,8168.0000
569.59,8088.0000
569.87,8007.5000
570.15,7957.0000
570.43,8064.5000
570.71,8139.0000
570.99,8058.5000
571.26,8131.5000
571.54,8169.5000
571.82,8117.0000
572.10,8149.5000
572.38,8134.0000
572.66,8287.5000
572.93,8208.5000
573.21,8185.0000
573.49,8188.5000
573.77,8433.5000
574.05,8110.5000
574.32,8245.0000
574.60,8256.0000
574.88,8310.0000
575.16,8549.5000
575.44,8288.0000
575.71,8359.5000
575.99,8849.0000
576.27,8516.0000
576.55,8299.5000
576.83,8562.5000
577.10,8473.5000
577.38,8523.0000
577.66,8442.5000
577.94,8540.5000
578.22,8428.0000
578.49,8664.5000
578.77,8587.5000
579.05,8778.0000
579.33,8640.0000
579.60,8756.0000
579.88,8748.0000
580.16,8780.5000
580.44,8857.5000
580.72,8707.5000
580.99,8832.5000
581.27,8816.5000
581.55,8981.0000
581.83,8957.5000
582.10,9077.5000
582.38,9117.0000
582.66,9175.0000
582.94,9036.5000
583.21,9334.5000
583.49,9278.5000
583.77,9204.0000
584.04,9323.0000
584.32,9394.0000
584.60,9464.0000
584.88,9414.0000
585.15,9577.0000
585.43,9411.5000
585.71,9478.5000
585.98,9475.0000
586.26,9533.5000
586.54,9688.5000
586.82,9792.5000
587.09,9646.0000
587.37,9953.0000
587.65,9794.5000
587.92,9927.0000
588.20,10167.0000
588.48,10331.0000
588.75,9963.5000
589.03,9937.0000
589.31,10072.5000
589.59,10078.5000
589.86,10398.5000
590.14,10325.5000
590.42,10467.5000
590.69,10515.0000
590.97,10260.0000
591.25,10380.0000
591.52,10445.5000
591.80,10759.5000
592.08,10681.0000
592.35,10583.0000
592.63,10654.0000
592.91,10796.5000
593.18,10781.5000
593.46,10709.5000
593.73,10808.0000
594.01,10906.0000
594.29,11069.0000
594.56,10861.5000
594.84,10958.5000
595.12,11107.0000
595.39,10877.5000
595.67,11020.0000
595.95,10953.5000
596.22,10905.0000
596.50,10962.0000
596.77,11030.5000
597.05,11351.5000
597.33,11275.5000
597.60,11181.5000
597.88,11245.5000
598.15,11490.0000
598.43,11213.5000
598.71,11245.5000
598.98,11859.5000
599.26,11583.5000
599.53,11313.5000
599.81,11504.5000
600.09,11398.5000
600.36,11415.5000
600.64,11559.5000
600.91,11413.5000
601.19,11499.0000
601.47,11513.0000
601.74,11497.5000
602.02,11533.5000
602.29,11640.5000
602.57,11691.0000
602.84,11635.0000
603.12,11632.5000
603.40,11780.5000
603.67,11866.0000
603.95,11895.0000
604.22,12132.5000
604.50,11765.0000
604.77,11853.0000
605.05,11772.5000
605.32,11839.0000
605.60,12047.0000
605.87,11698.0000
606.15,11812.0000
606.42,11776.0000
606.70,11880.0000
606.98,11884.0000
607.25,11971.5000
607.53,12043.5000
607.80,11997.0000
608.08,11975.5000
608.35,12134.5000
608.63,11981.5000
608.90,12176.5000
609.18,12070.0000
609.45,11986.5000
609.73,12202.0000
610.00,12252.5000
610.28,12069.0000
610.55,11936.0000
610.83,11995.0000
611.10,11969.0000
611.38,12045.0000
611.65,12085.0000
611.93,12057.5000
612.20,12156.0000
612.48,11846.0000
612.75,12131.0000
613.03,12027.0000
613.30,12167.5000
613.57,12096.5000
613.85,12120.0000
614.12,12235.0000
614.40,11950.0000
614.67,12047.5000
614.95,12095.0000
615.22,12038.5000
615.50,11788.0000
615.77,12010.5000
616.05,11840.5000
616.32,11990.5000
616.59,11891.0000
616.87,11884.5000
617.14,11907.0000
617.42,11970.0000
617.69,11973.0000
617.97,11759.5000
618.24,11802.0000
618.51,11558.0000
618.79,11791.5000
619.06,11704.0000
619.34,11779.5000
619.61,11644.5000
619.88,11998.0000
620.16,11733.5000
620.43,11771.5000
620.71,11560.5000
620.98,11579.0000
621.26,11697.5000
621.53,11652.5000
621.80,11715.5000
622.08,11574.0000
622.35,11493.5000
622.62,11557.5000
622.90,11514.0000
623.17,11454.5000
623.45,11514.0000
623.72,11460.5000
623.99,11307.5000
624.27,11367.0000
624.54,11420.0000
624.81,11467.0000
625.09,11379.0000
625.36,11303.5000
625.64,11334.0000
625.91,11249.0000
626.18,11110.0000
626.46,11166.0000
626.73,11543.5000
627.00,11250.5000
627.28,11100.0000
627.55,11051.0000
627.82,10964.5000
628.10,11101.5000
628.37,10932.0000
628.64,10927.0000
628.92,10899.0000
629.19,10866.0000
629.46,10957.5000
629.74,10918.5000
630.01,11106.0000
630.28,11118.0000
630.56,11146.5000
630.83,11001.5000
631.10,11061.0000
631.37,10995.5000
631.65,10872.0000
631.92,10851.0000
632.19,10709.5000
632.47,10875.0000
632.74,10603.5000
633.01,10650.5000
633.28,10387.0000
633.56,10539.5000
633.83,10309.0000
634.10,10467.5000
634.38,10438.0000
634.65,10548.5000
634.92,10531.5000
635.19,10709.0000
635.47,10471.5000
635.74,10336.5000
636.01,10219.0000
636.28,10107.5000
636.56,10159.0000
636.83,10084.5000
637.10,10220.0000
637.37,10107.0000
637.65,10058.5000
637.92,9933.0000
638.19,9739.0000
638.46,10086.0000
638.74,9851.5000
639.01,9953.0000
639.28,9589.0000
639.55,9891.0000
639.83,9602.5000
640.10,9556.5000
640.37,9672.5000
640.64,9542.5000
640.91,9580.0000
641.19,9552.0000
641.46,9556.0000
641.73,9730.0000
642.00,9417.0000
642.28,9506.0000
642.55,9374.5000
642.82,9280.5000
643.09,9423.5000
643.36,9381.0000
643.63,9235.0000
643.91,9200.0000
644.18,9145.0000
644.45,9179.5000
644.72,9263.5000
644.99,8961.0000
645.27,8896.0000
645.54,9033.5000
645.81,9403.5000
646.08,9007.5000
646.35,8768.5000
646.62,8830.0000
646.90,8930.5000
647.17,9045.5000
647.44,8831.5000
647.71,8897.0000
647.98,8634.0000
648.25,8745.0000
648.52,8509.5000
648.80,8618.5000
649.07,8469.5000
649.34,8457.5000
649.61,8328.5000
649.88,8639.5000
650.15,8575.0000
650.42,8461.5000
650.69,8311.5000
650.97,8429.0000
651.24,8367.5000
651.51,8295.0000
651.78,8376.5000
652.05,8111.5000
652.32,8134.0000
652.59,8387.5000
652.86,8078.0000
653.13,7948.0000
653.41,8067.5000
653.68,8059.5000
653.95,8068.5000
654.22,7960.5000
654.49,7918.5000
654.76,7747.5000
655.03,7954.5000
655.30,7754.0000
655.57,7629.0000
655.84,7729.0000
656.11,7747.5000
656.38,7560.0000
656.66,7556.0000
656.93,7423.0000
657.20,7512.0000
657.47,7723.5000
657.74,7542.5000
658.01,7558.0000
658.28,7360.0000
658.55,7370.0000
658.82,7450.5000
659.09,7519.0000
659.36,7347.0000
659.63,7198.5000
659.90,7225.5000
660.17,7356.0000
660.44,7137.0000
660.71,7132.0000
660.98,7220.0000
661.25,7158.5000
661.52,7037.5000
661.79,7036.5000
662.06,7005.5000
662.33,6932.0000
662.60,6856.0000
662.87,7015.5000
663.14,6831.0000
663.41,6887.5000
663.68,6686.5000
663.95,6657.0000
664.22,6812.5000
664.49,6773.5000
664.76,6612.5000
665.03,6506.0000
665.30,6614.0000
665.57,6573.0000
665.84,6555.5000
666.11,6492.0000
666.38,6467.5000
666.65,6510.5000
666.92,6855.0000
667.19,6377.5000
667.46,6484.5000
667.73,6460.5000
668.00,6316.0000
668.27,6314.5000
668.54,6402.5000
668.81,6278.0000
669.08,6358.0000
669.35,6213.5000
669.62,6423.0000
669.89,6123.0000
670.16,6261.0000
670.42,6036.0000
670.69,6084.5000
670.96,6133.5000
671.23,5992.5000
671.50,5922.5000
671.77,5794.5000
672.04,5933.0000
672.31,5899.5000
672.58,5726.0000
672.85,5830.0000
673.12,5815.0000
673.39,5849.0000
673.65,5705.5000
673.92,5882.5000
674.19,5749.0000
674.46,5733.0000
674.73,5755.0000
675.00,5632.5000
675.27,5663.0000
675.54,5674.0000
675.81,5638.0000
676.07,5576.5000
676.34,5822.0000
676.61,5689.5000
676.88,5384.5000
677.15,5459.5000
677.42,5545.0000
677.69,5443.0000
677.96,5526.5000
678.22,5426.0000
678.49,5329.5000
678.76,5370.0000
679.03,5269.5000
679.30,5270.0000
679.57,5135.5000
679.83,5398.5000
680.10,5247.0000
680.37,5307.5000
680.64,5347.5000
680.91,5114.5000
681.18,5261.0000
681.44,5104.0000
681.71,5085.5000
681.98,5223.5000
682.25,5179.0000
682.52,5112.5000
682.79,5131.0000
683.05,5233.5000
683.32,4985.5000
683.59,5131.5000
683.86,5040.0000
684.13,5110.0000
684.39,4882.5000
684.66,4970.5000
684.93,5008.5000
685.20,4912.5000
685.47,4803.5000
685.73,4932.0000
686.00,4774.0000
686.27,4842.0000
686.54,4701.0000
686.80,4902.5000
687.07,4810.5000
687.34,4523.5000
687.61,4666.0000
687.88,4694.5000
688.14,4644.0000
688.41,4831.0000
688.68,4525.5000
688.95,4532.5000
689.21,4546.0000
689.48,4835.5000
689.75,4650.5000
690.02,4502.5000
690.28,4438.0000
690.55,4609.5000
690.82,4451.5000
691.08,4588.0000
691.35,4538.0000
691.62,4611.5000
691.89,4605.5000
692.15,4537.5000
692.42,4492.0000
692.69,4345.5000
692.95,4458.5000
693.22,4548.5000
693.49,4445.5000
693.76,4441.0000
694.02,4448.5000
694.29,4414.0000
694.56,4425.0000
694.82,4585.5000
695.09,4262.0000
695.36,4383.0000
695.62,4346.0000
695.89,4547.5000
696.16,4268.5000
696.43,4548.0000
696.69,4597.0000
696.96,4669.0000
697.23,4350.5000
697.49,4413.0000
697.76,4501.5000
698.03,4230.5000
698.29,4335.5000
698.56,4394.0000
698.82,4291.0000
699.09,4484.5000
699.36,4471.0000
699.62,4384.5000
699.89,4402.0000
700.16,4173.5000
700.42,4397.0000
700.69,4457.0000
700.96,4361.0000
701.22,4395.0000
701.49,4303.5000
701.75,4509.5000
702.02,4318.5000
702.29,4263.0000
702.55,4256.5000
702.82,4405.5000
703.09,4419.5000
703.35,4561.0000
703.62,4488.5000
703.88,4576.0000
704.15,4235.5000
704.42,4405.5000
704.68,4299.5000
704.95,4617.0000
705.21,4352.0000
705.48,4553.5000
705.75,4336.5000
706.01,4443.5000
706.28,4355.5000
706.54,4366.0000
706.81,4481.5000
707.07,4493.0000
707.34,4354.5000
707.61,4553.5000
707.87,4479.5000
708.14,4542.5000
708.40,4496.0000
708.67,4605.0000
708.93,4536.5000
709.20,4473.5000
709.46,4522.0000
709.73,4653.5000
709.99,4596.5000
710.26,4496.0000
710.53,4543.5000
710.79,4362.5000
711.06,4633.5000
711.32,5162.0000
711.59,4847.5000
711.85,4837.5000
712.12,4673.0000
712.38,4571.5000
712.65,4663.0000
712.91,4731.5000
713.18,4747.5000
713.44,4788.0000
713.71,4711.5000
713.97,4847.0000
714.24,4740.5000
714.50,4742.5000
714.77,4815.0000
715.03,4802.5000
715.30,4902.0000
715.56,4828.0000
715.83,4731.0000
716.09,4859.0000
716.36,5059.0000
716.62,4647.0000
716.89,4460.5000
717.15,4729.5000
717.42,4472.0000
717.68,4451.0000
717.94,4494.0000
718.21,4628.0000
718.47,4669.5000
718.74,4495.5000
719.00,4713.0000
719.27,4688.0000
719.53,4497.0000
719.80,4685.5000
720.06,4764.5000
720.32,4945.0000
720.59,4951.0000
720.85,5040.0000
721.12,5000.5000
721.38,5334.0000
721.65,5237.5000
721.91,5228.0000
722.17,5214.0000
722.44,5385.0000
722.70,5258.5000
722.97,5209.5000
723.23,5234.0000
723.49,5088.5000
723.76,4987.5000
724.02,5445.0000
724.29,5331.5000
724.55,5239.5000
724.81,5356.0000
725.08,5355.5000
725.34,5455.5000
725.61,5325.5000
725.87,5522.5000
726.13,5465.0000
726.40,5643.5000
726.66,5556.5000
726.92,5551.5000
727.19,5486.0000
727.45,5497.5000
727.71,5624.5000
727.98,5659.0000
728.24,5876.5000
728.51,5834.5000
728.77,5680.5000
729.03,5764.0000
729.30,5905.0000
729.56,5786.0000
729.82,6170.0000
730.09,5920.0000
730.35,5828.0000
730.61,5994.0000
730.88,6062.0000
731.14,6050.0000
731.40,6229.5000
731.67,6285.0000
731.93,6370.5000
732.19,6505.0000
732.45,6629.0000
732.72,6536.5000
732.98,6664.5000
733.24,6701.0000
733.51,6768.0000
733.77,6866.0000
734.03,7022.0000
734.30,6986.0000
734.56,7040.5000
734.82,6766.5000
735.08,6962.5000
735.35,6958.5000
735.61,7081.0000
735.87,6996.0000
736.14,7159.0000
736.40,7167.0000
736.66,7165.0000
736.92,7301.0000
737.19,7304.5000
737.45,7402.0000
737.71,7278.5000
737.97,7307.5000
738.24,7367.0000
738.50,7324.0000
738.76,7460.5000
739.02,7261.0000
739.29,7513.5000
739.55,7629.5000
739.81,7566.0000
740.07,7539.0000
740.33,7657.5000
740.60,7623.5000
740.86,7754.5000
741.12,7668.0000
741.38,7658.5000
741.65,7807.5000
741.91,7642.5000
742.17,7869.0000
742.43,7756.0000
742.69,7853.0000
742.96,8115.5000
743.22,8040.0000
743.48,8112.5000
743.74,8062.0000
744.00,8086.0000
744.26,8040.5000
744.53,8017.0000
744.79,8033.0000
745.05,8115.5000
745.31,8092.0000
745.57,8308.0000
745.84,8212.5000
746.10,8144.0000
746.36,8107.5000
746.62,8263.5000
746.88,8323.5000
747.14,8492.0000
747.40,8289.0000
747.67,8320.5000
747.93,8487.5000
748.19,8331.5000
748.45,8520.5000
748.71,8414.5000
748.97,8449.0000
749.23,8468.5000
749.50,8450.5000
749.76,8367.0000
750.02,8358.0000
750.28,8512.0000
750.54,8264.0000
750.80,8400.0000
751.06,8216.0000
751.32,8390.0000
751.59,8502.0000
751.85,8465.0000
752.11,8614.5000
752.37,8613.0000
752.63,8479.5000
752.89,8740.5000
753.15,8776.5000
753.41,8449.0000
753.67,8540.5000
753.93,8652.5000
754.19,8526.0000
754.46,8809.0000
754.72,8409.5000
754.98,8535.0000
755.24,8588.0000
755.50,8327.0000
755.76,8488.5000
756.02,8510.5000
756.28,8492.0000
756.54,8489.0000
756.80,8611.0000
757.06,8565.0000
757.32,8289.0000
757.58,8398.0000
757.84,8705.5000
758.10,8306.0000
758.36,8232.5000
758.62,7991.0000
758.88,7497.5000
759.14,6860.5000
759.40,5659.0000
759.66,4566.0000
759.92,4138.0000
760.18,3845.5000
760.44,3847.0000
760.70,4064.0000
760.96,4602.0000
761.22,5269.5000
761.48,5688.5000
761.74,6034.5000
762.00,5868.0000
762.26,5597.5000
762.52,5224.5000
762.78,5186.0000
763.04,5165.0000
763.30,5468.0000
763.56,5306.5000
763.82,5460.0000
764.08,5959.5000
764.34,6033.5000
764.60,6325.5000
764.86,6429.0000
765.12,6493.0000
765.38,6749.5000
765.64,6981.5000
765.90,7315.5000
766.16,7120.0000
766.42,7397.0000
766.68,7590.5000
766.94,7684.5000
767.20,7806.5000
767.46,7955.5000
767.72,7947.5000
767.98,8039.0000
768.23,8044.0000
768.49,8123.0000
768.75,8212.5000
769.01,8259.5000
769.27,8047.5000
769.53,8320.0000
769.79,8254.5000
770.05,8313.0000
770.31,8273.5000
770.57,8491.5000
770.83,8155.5000
771.08,8311.0000
771.34,8087.5000
771.60,8387.5000
771.86,8180.5000
772.12,8234.5000
772.38,8378.0000
772.64,8245.5000
772.90,8137.5000
773.16,8301.0000
773.41,8290.0000
773.67,8149.5000
773.93,8253.5000
774.19,8086.5000
774.45,8115.5000
774.71,8201.5000
774.97,8082.5000
775.22,8123.5000
775.48,8201.0000
775.74,8016.5000
776.00,8328.5000
776.26,8202.0000
776.52,8012.5000
776.77,8161.5000
777.03,8181.0000
777.29,8062.0000
777.55,7980.5000
777.81,8077.0000
778.07,8080.5000
778.32,8057.0000
778.58,8022.0000
778.84,7982.0000
779.10,8164.5000
779.36,7991.0000
779.61,7974.5000
779.87,8009.5000
780.13,7868.0000
780.39,8048.0000
780.65,7826.0000
780.90,7914.0000
781.16,8038.5000
781.42,7901.0000
781.68,7967.0000
781.94,8054.0000
782.19,8026.0000
782.45,7912.0000
782.71,7980.0000
782.97,7930.5000
783.22,7883.0000
783.48,7701.0000
783.74,7804.5000
784.00,7793.5000
784.25,7816.0000
784.51,7740.5000
784.77,7927.5000
785.03,7760.0000
785.28,7710.5000
785.54,7651.0000
785.80,7764.0000
786.06,7650.5000
786.31,7641.5000
786.57,7651.0000
786.83,7636.5000
787.08,7654.0000
787.34,7510.0000
787.60,7674.5000
787.86,7506.0000
788.11,7532.0000
788.37,7493.0000
788.63,7536.5000
788.88,7670.0000
789.14,7440.0000
789.40,7265.0000
789.65,7364.5000
789.91,7516.0000
790.17,7241.0000
790.42,7294.0000
790.68,7341.0000
790.94,7326.0000
791.20,7622.5000
791.45,7513.0000
791.71,7323.0000
791.97,7204.5000
792.22,7408.0000
792.48,7288.0000
792.73,7079.5000
792.99,7292.0000
793.25,7013.0000
793.50,7201.0000
793.76,7245.0000
794.02,7043.5000
794.27,7022.5000
794.53,7327.0000
794.79,7188.0000
795.04,7278.5000
795.30,7144.5000
795.55,7069.0000
795.81,6863.0000
796.07,7076.5000
796.32,7022.0000
796.58,7004.0000
796.84,7064.5000
797.09,7069.0000
797.35,7148.0000
797.60,7134.0000
797.86,7120.0000
798.12,7250.0000
798.37,7100.0000
798.63,7051.0000
798.88,6952.0000
799.14,6939.5000
799.39,6834.0000
799.65,7087.5000
799.91,6714.5000
800.16,6849.0000
800.42,6820.5000
800.67,6966.0000
800.93,6950.5000
801.18,6798.0000
801.44,6936.5000
801.70,6909.0000
801.95,6824.0000
802.21,6760.0000
802.46,6678.0000
802.72,6676.0000
802.97,6899.0000
803.23,6808.5000
803.48,6802.0000
803.74,6603.0000
803.99,6559.0000
804.25,6614.0000
804.50,6801.0000
804.76,6658.5000
805.02,6672.0000
805.27,6825.5000
805.53,6941.0000
805.78,6646.0000
806.04,6816.0000
806.29,6630.5000
806.55,6885.5000
806.80,6668.5000
807.06,7076.5000
807.31,6522.5000
807.56,6579.0000
807.82,6678.5000
808.07,6736.0000
808.33,6543.0000
808.58,6530.0000
808.84,6558.5000
809.09,6397.0000
809.35,6493.0000
809.60,6277.5000
809.86,6433.0000
810.11,6533.0000
810.37,6347.5000
810.62,6169.0000
810.88,6231.5000
811.13,6327.5000
811.38,6065.0000
811.64,6240.5000
811.89,6191.5000
812.15,6116.5000
812.40,6057.5000
812.66,6038.0000
812.91,5927.0000
813.16,5661.5000
813.42,5671.0000
813.67,5706.5000
813.93,5555.0000
814.18,5556.5000
814.44,5716.5000
814.69,5445.0000
814.94,5340.0000
815.20,5310.0000
815.45,5237.0000
815.71,5237.0000
815.96,5118.0000
816.21,5117.0000
816.47,5267.5000
816.72,5285.0000
816.97,5323.0000
817.23,5198.0000
817.48,5069.0000
817.74,5200.5000
817.99,5256.0000
818.24,5545.5000
818.50,5405.5000
818.75,5576.0000
819.00,5332.0000
819.26,5397.5000
819.51,5721.5000
819.76,5304.5000
820.02,5474.0000
820.27,5707.0000
820.52,5642.5000
820.78,5527.5000
821.03,5661.0000
821.28,5616.0000
821.54,5543.0000
821.79,5301.0000
822.04,5077.5000
822.30,4772.0000
822.55,4781.0000
822.80,4686.5000
823.06,4839.0000
823.31,5097.5000
823.56,5399.0000
823.82,5517.5000
824.07,5579.0000
824.32,5567.0000
824.57,5641.5000
824.83,5721.0000
825.08,5751.5000
825.33,5562.5000
825.59,5361.5000
825.84,5413.5000
826.09,5602.0000
826.34,5479.5000
826.60,5573.0000
826.85,5394.5000
827.10,5208.5000
827.35,5337.0000
827.61,5003.5000
827.86,5218.0000
828.11,5277.0000
828.36,5078.0000
828.62,5250.0000
828.87,5320.5000
829.12,5198.5000
829.37,5437.5000
829.63,5246.5000
829.88,5411.0000
830.13,5342.0000
830.38,5427.0000
830.63,5180.5000
830.89,5288.0000
831.14,5347.5000
831.39,5276.0000
831.64,5254.5000
831.89,5407.0000
832.15,5137.5000
832.40,5282.5000
832.65,5416.0000
832.90,5207.0000
833.15,5236.0000
833.41,5271.5000
833.66,5673.0000
833.91,5472.5000
834.16,5349.0000
834.41,5479.5000
834.67,5221.5000
834.92,5405.5000
835.17,5273.0000
835.42,5287.5000
835.67,5357.5000
835.92,5337.5000
836.17,5297.5000
836.43,5491.0000
836.68,5568.5000
836.93,5234.5000
837.18,5311.5000
837.43,5275.5000
837.68,5403.5000
837.93,5286.0000
838.19,5342.0000
838.44,5365.5000
838.69,5497.5000
838.94,5308.5000
839.19,5317.0000
839.44,5423.5000
839.69,5534.5000
839.94,5366.5000
840.20,5467.0000
840.45,5664.5000
840.70,5527.5000
840.95,5354.0000
841.20,5299.0000
841.45,5337.5000
841.70,5400.0000
841.95,5382.5000
842.20,5432.0000
842.45,5706.0000
842.70,5478.5000
842.95,5181.0000
843.21,5402.0000
843.46,5235.5000
843.71,5340.5000
843.96,5528.0000
844.21,5283.5000
844.46,5221.5000
844.71,5340.5000
844.96,5736.0000
845.21,5310.0000
845.46,5281.5000
845.71,5392.5000
845.96,5338.0000
846.21,5353.0000
846.46,5388.0000
846.71,5202.5000
846.96,5085.0000
847.21,5361.0000
847.46,5306.5000
847.71,5238.5000
847.96,5247.0000
848.21,5152.0000
848.46,5258.0000
848.71,5261.0000
848.96,5210.0000
849.21,5073.5000
849.46,4847.0000
849.71,5000.0000
849.96,4890.0000
850.21,5030.5000
850.46,5149.5000
850.71,5095.5000
850.96,4906.0000
851.21,5118.5000
851.46,5071.0000
851.71,5070.5000
851.96,4989.5000
852.21,5054.5000
852.46,5011.0000
852.71,5098.0000
852.96,5015.0000
853.21,4904.5000
853.46,4803.0000
853.71,4732.5000
853.96,4440.5000
854.21,4555.0000
854.46,5007.0000
854.70,4913.5000
854.95,5003.0000
855.20,4971.0000
855.45,5112.5000
855.70,5047.5000
855.95,4969.5000
856.20,5156.5000
856.45,5047.5000
856.70,5133.0000
856.95,5073.5000
857.20,4959.5000
857.44,5233.0000
857.69,4942.5000
857.94,5055.5000
858.19,5126.5000
858.44,5020.5000
858.69,5085.5000
858.94,5114.0000
859.19,4996.5000
859.44,4980.0000
859.68,5079.0000
859.93,5009.5000
860.18,4936.0000
860.43,5017.0000
860.68,5245.0000
860.93,5039.0000
861.18,4996.5000
861.42,5068.5000
861.67,5077.0000
861.92,5130.0000
862.17,5122.5000
862.42,5100.0000
862.67,4995.0000
862.91,5007.0000
863.16,5008.0000
863.41,4996.0000
863.66,5007.5000
863.91,5141.0000
864.16,5002.0000
864.40,4842.5000
864.65,4933.0000
864.90,4711.5000
865.15,4692.0000
865.40,4639.0000
865.64,4665.0000
865.89,4563.0000
866.14,4503.5000
866.39,4518.0000
866.64,4690.5000
866.88,4592.5000
867.13,4907.0000
867.38,4956.5000
867.63,4679.0000
867.87,4788.0000
868.12,4886.0000
868.37,4936.5000
868.62,4655.0000
868.86,4724.0000
869.11,4601.5000
869.36,4850.0000
869.61,4905.0000
869.85,4868.0000
870.10,5055.0000
870.35,4883.5000
870.60,4808.5000
870.84,4767.0000
871.09,4734.5000
871.34,4820.0000
871.59,4766.5000
871.83,4918.0000
872.08,4874.5000
872.33,4547.0000
872.57,4722.0000
872.82,4858.0000
873.07,4760.5000
873.32,4810.0000
873.56,4762.5000
873.81,4744.5000
874.06,4834.0000
874.30,4653.0000
874.55,4771.0000
874.80,4642.0000
875.04,4780.0000
875.29,4644.5000
875.54,4778.0000
875.78,4617.5000
876.03,4651.5000
876.28,4557.0000
876.52,4504.0000
876.77,4582.5000
877.02,4699.5000
877.26,4559.5000
877.51,4546.5000
877.76,4669.5000
878.00,4675.0000
878.25,4618.5000
878.50,4785.5000
878.74,4527.0000
878.99,4658.5000
879.23,4511.0000
879.48,4445.0000
879.73,4650.5000
879.97,4533.5000
880.22,4415.0000
880.47,4438.0000
880.71,4345.5000
880.96,4729.0000
881.20,4523.5000
881.45,4519.0000
881.70,4528.0000
881.94,4512.5000
882.19,4469.0000
882.43,4582.5000
882.68,4478.5000
882.92,4782.0000
883.17,4517.0000
883.42,4599.5000
883.66,4529.0000
883.91,4461.0000
884.15,4389.0000
884.40,4503.0000
884.64,4441.5000
884.89,4585.0000
885.14,4482.0000
885.38,4571.5000
885.63,4377.0000
885.87,4356.5000
886.12,4410.0000
886.36,4439.0000
886.61,4387.5000
886.85,4450.5000
887.10,4396.0000
887.34,4357.0000
887.59,4401.0000
887.83,4360.5000
888.08,4455.0000
888.32,4242.0000
888.57,4472.5000
888.81,4432.0000
889.06,4468.0000
889.30,4255.0000
889.55,4352.5000
889.79,4261.0000
890.04,4429.5000
890.28,4263.0000
890.53,4362.0000
890.77,4535.0000
891.02,4271.0000
891.26,4312.5000
891.51,4223.5000
891.75,4257.0000
892.00,4113.0000
892.24,4138.5000
892.49,4070.0000
892.73,4218.5000
892.98,4166.5000
893.22,4122.5000
893.47,3915.0000
893.71,4150.0000
893.95,4096.0000
894.20,3906.0000
894.44,3855.0000
894.69,4166.5000
894.93,4237.5000
895.18,3840.0000
895.42,3937.5000
895.66,3731.5000
895.91,3718.0000
896.15,3621.5000
896.40,3785.0000
896.64,3818.5000
896.88,3569.5000
897.13,3811.0000
897.37,3607.5000
897.62,3672.0000
897.86,3792.0000
898.10,3485.5000
898.35,3364.0000
898.59,3414.5000
898.84,3513.5000
899.08,3481.5000
899.32,3596.5000
899.57,3678.0000
899.81,3440.0000
900.05,3350.5000
900.30,3454.5000
900.54,3416.0000
900.78,3717.0000
901.03,3648.0000
901.27,3491.0000
901.52,3471.0000
901.76,3555.5000
902.00,3604.5000
902.25,3540.0000
902.49,3515.0000
902.73,3722.0000
902.98,3680.5000
903.22,3758.0000
903.46,3754.0000
903.70,3811.0000
903.95,3771.5000
904.19,3877.0000
904.43,3899.5000
904.68,3689.0000
904.92,3627.5000
905.16,3675.5000
905.41,3659.0000
905.65,3472.5000
905.89,3473.0000
906.13,3787.5000
906.38,3392.5000
906.62,3526.0000
906.86,3299.0000
907.11,3395.5000
907.35,3326.5000
907.59,3564.0000
907.83,3655.5000
908.08,3325.5000
908.32,3182.5000
908.56,3424.0000
908.80,3381.0000
909.05,3481.5000
909.29,3434.5000
909.53,3288.0000
909.77,3336.5000
910.02,3255.5000
910.26,3581.5000
910.50,3341.0000
910.74,3405.0000
910.98,3375.0000
911.23,3546.5000
911.47,3397.5000
911.71,3413.0000
911.95,3260.0000
912.20,3438.5000
912.44,3141.0000
912.68,3221.5000
912.92,3240.0000
913.16,3230.0000
913.41,3018.0000
913.65,3334.5000
913.89,3334.5000
914.13,3364.5000
914.37,3248.0000
914.61,3417.5000
914.86,3122.0000
915.10,3178.0000
915.34,3202.0000
915.58,3151.5000
915.82,3174.5000
916.06,3233.5000
916.31,3272.5000
916.55,3236.5000
916.79,3299.5000
917.03,3259.0000
917.27,3088.5000
917.51,3323.0000
917.75,3231.0000
918.00,3183.5000
918.24,3495.5000
918.48,3394.0000
918.72,3698.5000
918.96,3343.5000
919.20,3486.5000
919.44,3685.5000
919.68,3851.5000
919.92,3488.0000
920.17,3369.5000
920.41,3355.0000
920.65,3326.5000
920.89,3282.5000
921.13,3337.5000
921.37,3360.5000
921.61,3158.0000
921.85,3315.0000
922.09,3320.0000
922.33,3395.5000
922.57,3302.0000
922.81,3094.5000
923.05,3277.0000
923.30,3142.0000
923.54,3170.5000
923.78,3050.0000
924.02,3293.0000
924.26,3202.0000
924.50,3125.5000
924.74,3251.0000
924.98,3045.0000
925.22,3277.5000
925.46,3153.0000
925.70,3227.5000
925.94,3435.5000
926.18,3135.0000
926.42,3259.5000
926.66,3269.0000
926.90,3057.5000
927.14,2921.5000
927.38,2958.5000
927.62,2840.5000
927.86,3180.0000
928.10,3052.5000
928.34,2767.5000
928.58,2687.0000
928.82,2828.0000
929.06,2838.0000
929.30,3034.0000
929.54,2694.5000
929.78,2577.5000
930.02,2481.0000
930.26,2658.0000
930.50,2513.0000
930.74,2547.0000
930.98,2537.5000
931.22,2546.0000
931.46,2431.0000
931.70,2400.0000
931.94,2503.5000
932.17,2400.5000
932.41,2473.0000
932.65,2440.5000
932.89,2289.0000
933.13,2337.5000
933.37,2369.0000
933.61,2080.0000
933.85,2254.0000
934.09,2180.5000
934.33,2243.5000
934.57,2160.0000
934.81,2328.5000
935.05,2419.5000
935.28,2384.0000
935.52,2248.5000
935.76,2221.5000
936.00,2413.0000
936.24,2411.5000
936.48,2326.0000
936.72,2325.0000
936.96,2317.5000
937.19,2333.5000
937.43,2455.5000
937.67,2290.0000
937.91,2311.0000
938.15,2345.5000
938.39,2455.5000
938.63,2506.5000
938.86,2516.0000
939.10,2532.5000
939.34,2490.5000
939.58,2354.5000
939.82,2467.0000
940.06,2444.0000
940.30,2322.0000
940.53,2317.0000
940.77,2339.0000
941.01,2336.0000
941.25,2278.0000
